/* F3 - Waermeleitung in Kristallen - HZB - Hanjo Ryll, Bastian Klemke
/* Spannung am Agilent 6.667000E+0 V
/* Pulszeit am Agilent 1.200000E-2 s
/* t [s]   R1 [Ohm]  R2 [Ohm] 
-1.000000E+0     1.758880E+2     1.511837E+2
-9.728546E-1     1.758714E+2     1.511978E+2
-9.392328E-1     1.758732E+2     1.511832E+2
-9.164152E-1     1.758721E+2     1.511890E+2
-8.926172E-1     1.759042E+2     1.511890E+2
-8.685250E-1     1.758721E+2     1.511890E+2
-8.427653E-1     1.758805E+2     1.511912E+2
-8.171220E-1     1.758984E+2     1.511975E+2
-7.937388E-1     1.758791E+2     1.511879E+2
-7.715297E-1     1.758791E+2     1.511777E+2
-7.438288E-1     1.758735E+2     1.512019E+2
-7.211804E-1     1.758999E+2     1.512019E+2
-6.950903E-1     1.758768E+2     1.512025E+2
-6.721606E-1     1.758748E+2     1.511772E+2
-6.406474E-1     1.758706E+2     1.511756E+2
-6.159544E-1     1.758749E+2     1.511940E+2
-5.905638E-1     1.758832E+2     1.511970E+2
-5.650816E-1     1.758705E+2     1.511970E+2
-5.386500E-1     1.758705E+2     1.511812E+2
-5.067677E-1     1.758601E+2     1.511867E+2
-4.782386E-1     1.758709E+2     1.511769E+2
-4.499307E-1     1.758724E+2     1.511900E+2
-4.230862E-1     1.758756E+2     1.511842E+2
-3.990088E-1     1.758817E+2     1.511842E+2
-3.758521E-1     1.758674E+2     1.511797E+2
-3.511667E-1     1.758749E+2     1.511853E+2
-3.284998E-1     1.758749E+2     1.511877E+2
-3.060584E-1     1.758776E+2     1.511729E+2
-2.770629E-1     1.758638E+2     1.511920E+2
-2.493286E-1     1.758883E+2     1.511920E+2
-2.257276E-1     1.758863E+2     1.511920E+2
-1.986985E-1     1.758852E+2     1.511945E+2
-1.759305E-1     1.758626E+2     1.511855E+2
-1.500812E-1     1.758754E+2     1.511865E+2
-1.279678E-1     1.758878E+2     1.511953E+2
-1.037202E-1     1.758878E+2     1.511927E+2
-7.295370E-2     1.758866E+2     1.511927E+2
-4.369593E-2     1.758729E+2     1.512013E+2
-1.451015E-2     1.758844E+2     1.511852E+2
1.629066E-2     1.758720E+2     1.511862E+2
0.000000E+0     1.758694E+2     1.511909E+2
3.061676E-2     1.758478E+2     1.511290E+2
5.915642E-2     1.756502E+2     1.511290E+2
8.790684E-2     1.755137E+2     1.508643E+2
1.227236E-1     1.754971E+2     1.508788E+2
1.487994E-1     1.755109E+2     1.508788E+2
1.733780E-1     1.755384E+2     1.509107E+2
2.026095E-1     1.755431E+2     1.509202E+2
2.343392E-1     1.755618E+2     1.509286E+2
2.657385E-1     1.756108E+2     1.509679E+2
3.014636E-1     1.756108E+2     1.509899E+2
3.265419E-1     1.756227E+2     1.509845E+2
3.517380E-1     1.756174E+2     1.509725E+2
3.768716E-1     1.756491E+2     1.509725E+2
4.024153E-1     1.756622E+2     1.510048E+2
4.261541E-1     1.756768E+2     1.510304E+2
4.593391E-1     1.756984E+2     1.510591E+2
4.891210E-1     1.757030E+2     1.510589E+2
5.182252E-1     1.757030E+2     1.510589E+2
5.416751E-1     1.757113E+2     1.510774E+2
5.740466E-1     1.757358E+2     1.510774E+2
5.989323E-1     1.757447E+2     1.510856E+2
6.263824E-1     1.757494E+2     1.510977E+2
6.582584E-1     1.757483E+2     1.511038E+2
6.893735E-1     1.757803E+2     1.511038E+2
7.193360E-1     1.757643E+2     1.511118E+2
7.484255E-1     1.757643E+2     1.511176E+2
7.718325E-1     1.757679E+2     1.511152E+2
7.984486E-1     1.757928E+2     1.511417E+2
8.287296E-1     1.758100E+2     1.511519E+2
8.549795E-1     1.758246E+2     1.511519E+2
8.817744E-1     1.758125E+2     1.511500E+2
9.116931E-1     1.757964E+2     1.511255E+2
9.460258E-1     1.758098E+2     1.511418E+2
9.744391E-1     1.758098E+2     1.511217E+2
1.007241E+0     1.758077E+2     1.511217E+2
1.036026E+0     1.758234E+2     1.511217E+2
1.065015E+0     1.758339E+2     1.511536E+2
1.091877E+0     1.758293E+2     1.511538E+2
1.117958E+0     1.758238E+2     1.511534E+2
1.147306E+0     1.758173E+2     1.511689E+2
1.180411E+0     1.758497E+2     1.511689E+2
1.211167E+0     1.758339E+2     1.511705E+2
1.236837E+0     1.758325E+2     1.511652E+2
1.259402E+0     1.758409E+2     1.511664E+2
1.287282E+0     1.758388E+2     1.511724E+2
1.311732E+0     1.758477E+2     1.511724E+2
1.336686E+0     1.758606E+2     1.511864E+2
1.362411E+0     1.758490E+2     1.511864E+2
1.384993E+0     1.758444E+2     1.511745E+2
1.408302E+0     1.758444E+2     1.511703E+2
1.429522E+0     1.758601E+2     1.511675E+2
1.452786E+0     1.758476E+2     1.511738E+2
1.479504E+0     1.758339E+2     1.511548E+2
1.502801E+0     1.758303E+2     1.511548E+2
1.527032E+0     1.758410E+2     1.511552E+2
1.555056E+0     1.758445E+2     1.511695E+2
1.583814E+0     1.758382E+2     1.511524E+2
1.613477E+0     1.758220E+2     1.511553E+2
1.644460E+0     1.758326E+2     1.511796E+2
1.677789E+0     1.758740E+2     1.511948E+2
1.709290E+0     1.758436E+2     1.511826E+2
1.732815E+0     1.758573E+2     1.511788E+2
1.755451E+0     1.758563E+2     1.511788E+2
1.782820E+0     1.758566E+2     1.511723E+2
1.812431E+0     1.758594E+2     1.511755E+2
1.840431E+0     1.758576E+2     1.511755E+2
1.869380E+0     1.758700E+2     1.511582E+2
1.903753E+0     1.758360E+2     1.511621E+2
1.929532E+0     1.758497E+2     1.511621E+2
1.955064E+0     1.758736E+2     1.511850E+2
1.983780E+0     1.758689E+2     1.511850E+2
2.015916E+0     1.758822E+2     1.511965E+2
